# MKO_Mp filter 
# Wavelength [microns]  |  Transmission efficiency
5.55560000       2.46400000E-03  
5.55340000       8.72000000E-04  
5.55120000       3.70000000E-05  
5.54910000       7.80000000E-04  
5.54690000       -1.10000000E-04 
5.54480000       -1.33500000E-03 
5.54260000       7.90000000E-05  
5.54050000       2.00400000E-03  
5.53830000       3.09300000E-03  
5.53620000       2.24300000E-03  
5.53400000       2.26600000E-03  
5.53190000       1.12400000E-03  
5.52980000       -1.19400000E-03 
5.52760000       -9.09000000E-04 
5.52550000       -3.40000000E-04 
5.52330000       8.93000000E-04  
5.52120000       4.10900000E-03  
5.51910000       1.93100000E-03  
5.51690000       7.82000000E-04  
5.51480000       4.64800000E-03  
5.51270000       1.17700000E-03  
5.51060000       -2.33100000E-03 
5.50840000       -4.78500000E-03 
5.50630000       -1.29500000E-03 
5.50420000       1.13700000E-03  
5.50210000       2.30100000E-03  
5.49990000       9.63000000E-04  
5.49780000       3.00000000E-04  
5.49570000       -2.98000000E-04 
5.49360000       -1.15100000E-03 
5.49150000       -2.41700000E-03 
5.48940000       -2.37000000E-03 
5.48730000       -7.79000000E-04 
5.48520000       3.38400000E-03  
5.48310000       3.65600000E-03  
5.48100000       2.34100000E-03  
5.47890000       3.17900000E-03  
5.47680000       9.94000000E-04  
5.47470000       -1.02000000E-03 
5.47260000       -1.19500000E-03 
5.47050000       -6.85000000E-04 
5.46840000       1.08000000E-04  
5.46630000       8.81000000E-04  
5.46420000       -1.55000000E-03 
5.46210000       -3.04100000E-03 
5.46000000       -3.57000000E-03 
5.45790000       -2.50700000E-03 
5.45580000       -1.96800000E-03 
5.45380000       -1.07900000E-03 
5.45170000       6.80000000E-04  
5.44960000       1.49600000E-03  
5.44750000       1.92100000E-03  
5.44540000       1.99800000E-03  
5.44340000       1.71200000E-03  
5.44130000       5.06000000E-04  
5.43920000       -8.71000000E-04 
5.43710000       -1.15600000E-03 
5.43510000       -2.11500000E-03 
5.43300000       -1.95400000E-03 
5.43090000       4.18000000E-04  
5.42890000       2.14200000E-03  
5.42680000       2.13600000E-03  
5.42480000       7.48000000E-04  
5.42270000       1.86900000E-03  
5.42060000       1.35900000E-03  
5.41860000       -1.08000000E-04 
5.41650000       -1.90600000E-03 
5.41450000       -1.53700000E-03 
5.41240000       -9.23000000E-04 
5.41040000       -8.18000000E-04 
5.40830000       9.30000000E-05  
5.40630000       8.14000000E-04  
5.40420000       1.24300000E-03  
5.40220000       9.94000000E-04  
5.40020000       0.00000000E+00  
5.39700000       -7.98000000E-04 
5.39490000       3.31000000E-04  
5.39290000       3.86000000E-04  
5.39090000       6.43000000E-04  
5.38880000       1.67200000E-03  
5.38680000       4.68000000E-04  
5.38480000       -2.44000000E-04 
5.38270000       -4.10000000E-04 
5.38070000       -4.82000000E-04 
5.37870000       1.17600000E-03  
5.37670000       2.81500000E-03  
5.37460000       1.67700000E-03  
5.37260000       2.55900000E-03  
5.37060000       1.82400000E-03  
5.36860000       -2.24900000E-03 
5.36660000       -2.25400000E-03 
5.36450000       -3.03300000E-03 
5.36250000       -4.27700000E-03 
5.36050000       -1.97300000E-03 
5.35850000       1.21200000E-03  
5.35650000       3.46500000E-03  
5.35450000       1.55900000E-03  
5.35250000       9.19000000E-04  
5.35050000       -3.40000000E-05 
5.34850000       -1.93200000E-03 
5.34650000       -1.47800000E-03 
5.34450000       -1.31000000E-03 
5.34250000       -1.05200000E-03 
5.34050000       2.90200000E-03  
5.33850000       2.62700000E-03  
5.33650000       6.25000000E-04  
5.33450000       -5.13000000E-04 
5.33250000       -2.99000000E-04 
5.33050000       -5.19000000E-04 
5.32850000       -1.83900000E-03 
5.32650000       -5.10000000E-05 
5.32460000       1.94400000E-03  
5.32260000       3.82100000E-03  
5.32060000       3.98200000E-03  
5.31860000       1.52300000E-03  
5.31660000       -1.30600000E-03 
5.31460000       -1.66100000E-03 
5.31270000       -2.75700000E-03 
5.31070000       -3.12600000E-03 
5.30870000       -2.16800000E-03 
5.30670000       9.75000000E-04  
5.30480000       3.00400000E-03  
5.30280000       3.73300000E-03  
5.30080000       1.93300000E-03  
5.29890000       -6.56000000E-04 
5.29690000       -3.26000000E-03 
5.29490000       -4.88700000E-03 
5.29300000       -2.48900000E-03 
5.29100000       1.74000000E-04  
5.28910000       1.97200000E-03  
5.28710000       5.27000000E-04  
5.28510000       -4.66000000E-04 
5.28320000       -1.33300000E-03 
5.28120000       -4.35900000E-03 
5.27930000       -4.51000000E-03 
5.27730000       -2.93900000E-03 
5.27540000       -4.70000000E-05 
5.27340000       9.43000000E-04  
5.27150000       1.66800000E-03  
5.26950000       2.51700000E-03  
5.26760000       2.97000000E-04  
5.26570000       -1.31800000E-03 
5.26370000       -2.11500000E-03 
5.26180000       -8.77000000E-04 
5.25980000       -4.57000000E-04 
5.25790000       -5.12000000E-04 
5.25600000       -9.04000000E-04 
5.25400000       5.03000000E-04  
5.25210000       1.82400000E-03  
5.25020000       2.56200000E-03  
5.24820000       4.13000000E-04  
5.24630000       -7.15000000E-04 
5.24440000       -5.69000000E-04 
5.24250000       2.36100000E-03  
5.24050000       1.39600000E-03  
5.23860000       2.57000000E-04  
5.23670000       2.99300000E-03  
5.23480000       1.51000000E-03  
5.23290000       -4.38000000E-04 
5.23090000       -2.07500000E-03 
5.22900000       -1.97000000E-03 
5.22710000       -5.54000000E-04 
5.22520000       1.83600000E-03  
5.22330000       4.06500000E-03  
5.22140000       5.04500000E-03  
5.21950000       4.75000000E-03  
5.21760000       2.49100000E-03  
5.21570000       -1.07000000E-03 
5.21380000       -2.83100000E-03 
5.21190000       -1.87400000E-03 
5.21000000       -2.37900000E-03 
5.20810000       -2.51000000E-04 
5.20620000       3.30400000E-03  
5.20430000       3.67900000E-03  
5.20240000       3.98700000E-03  
5.20050000       2.98500000E-03  
5.19860000       -1.17500000E-03 
5.19670000       -1.77100000E-03 
5.19480000       -2.09500000E-03 
5.19290000       -2.83500000E-03 
5.19100000       -1.42000000E-03 
5.18910000       9.64000000E-04  
5.18730000       3.10600000E-03  
5.18540000       2.26000000E-04  
5.18350000       -1.43400000E-03 
5.18160000       -2.26400000E-03 
5.17970000       -2.19400000E-03 
5.17780000       -2.67000000E-04 
5.17600000       1.12400000E-03  
5.17410000       1.51600000E-03  
5.17220000       4.67100000E-03  
5.17040000       5.20300000E-03  
5.16850000       3.47300000E-03  
5.16660000       -5.33000000E-04 
5.16470000       -1.26000000E-03 
5.16290000       -9.12000000E-04 
5.16100000       -9.13000000E-04 
5.15910000       1.56700000E-03  
5.15730000       3.22700000E-03  
5.15540000       3.39600000E-03  
5.15360000       3.85700000E-03  
5.15170000       2.17200000E-03  
5.14980000       -7.68000000E-04 
5.14800000       -2.40000000E-03 
5.14610000       -2.22300000E-03 
5.14430000       -4.65000000E-04 
5.14240000       3.33300000E-03  
5.14060000       4.49700000E-03  
5.13870000       4.59000000E-03  
5.13690000       3.86900000E-03  
5.13500000       2.56000000E-03  
5.13320000       1.07600000E-03  
5.13130000       -9.80000000E-05 
5.12950000       8.31000000E-04  
5.12770000       -9.14000000E-04 
5.12580000       -1.46900000E-03 
5.12400000       2.63100000E-03  
5.12210000       4.19400000E-03  
5.12030000       2.53600000E-03  
5.11850000       -2.46500000E-03 
5.11660000       -3.21000000E-03 
5.11480000       -2.99900000E-03 
5.11300000       -2.29600000E-03 
5.11110000       -2.29400000E-03 
5.10930000       8.11000000E-04  
5.10750000       3.09200000E-03  
5.10570000       1.31900000E-03  
5.10380000       1.93700000E-03  
5.10200000       1.21100000E-03  
5.10020000       -1.42600000E-03 
5.09840000       -2.95800000E-03 
5.09660000       -3.54800000E-03 
5.09470000       -2.59000000E-03 
5.09290000       2.56100000E-03  
5.09110000       3.58500000E-03  
5.08930000       2.80400000E-03  
5.08750000       9.94000000E-04  
5.08570000       -2.50900000E-03 
5.08390000       -3.53600000E-03 
5.08200000       -1.67600000E-03 
5.08020000       -2.93300000E-03 
5.07840000       -6.14000000E-04 
5.07660000       3.03600000E-03  
5.07480000       2.75400000E-03  
5.07300000       2.68800000E-03  
5.07120000       2.25800000E-03  
5.06940000       9.43000000E-04  
5.06760000       -7.25000000E-04 
5.06580000       -8.54000000E-04 
5.06400000       7.92000000E-04  
5.06220000       2.49800000E-03  
5.06040000       3.74200000E-03  
5.05860000       4.90200000E-03  
5.05690000       6.94200000E-03  
5.05510000       3.57100000E-03  
5.05330000       -7.30000000E-05 
5.05150000       -7.48000000E-04 
5.04970000       -2.95000000E-04 
5.04790000       1.18500000E-03  
5.04610000       3.55700000E-03  
5.04440000       4.36600000E-03  
5.04260000       4.93900000E-03  
5.04080000       4.69600000E-03  
5.03900000       1.66000000E-03  
5.03720000       -2.95000000E-04 
5.03550000       -1.43900000E-03 
5.03370000       -1.62300000E-03 
5.03190000       -3.29000000E-04 
5.03010000       2.40300000E-03  
5.02840000       6.09100000E-03  
5.02660000       3.36000000E-03  
5.02480000       1.44400000E-03  
5.02310000       -4.82000000E-04 
5.02130000       -4.40600000E-03 
5.01950000       -2.29900000E-03 
5.01780000       7.00000000E-05  
5.01600000       -4.64000000E-04 
5.01420000       2.77900000E-03  
5.01250000       4.19600000E-03  
5.01070000       3.22900000E-03  
5.00900000       5.80000000E-04  
5.00720000       -2.95000000E-04 
5.00550000       -5.85000000E-04 
5.00370000       -2.66600000E-03 
5.00200000       -1.29900000E-03 
5.00020000       1.02500000E-03  
4.99850000       3.34700000E-03  
4.99670000       4.75000000E-04  
4.99500000       6.34000000E-04  
4.99320000       2.91100000E-03  
4.99150000       3.83000000E-04  
4.98970000       -1.07900000E-03 
4.98800000       -1.25800000E-03 
4.98620000       8.68000000E-04  
4.98450000       3.61200000E-03  
4.98280000       5.22500000E-03  
4.98100000       4.93000000E-03  
4.97930000       4.18800000E-03  
4.97760000       1.61100000E-03  
4.97580000       -2.29400000E-03 
4.97410000       -4.41700000E-03 
4.97240000       -3.51400000E-03 
4.97060000       -1.60100000E-03 
4.96890000       -8.07000000E-04 
4.96720000       4.66000000E-04  
4.96540000       1.09000000E-04  
4.96370000       -2.86000000E-03 
4.96200000       -1.22200000E-03 
4.96030000       1.55900000E-03  
4.95850000       4.61700000E-03  
4.95680000       3.30000000E-03  
4.95510000       4.48500000E-03  
4.95340000       6.92600000E-03  
4.95170000       9.67900000E-03  
4.95000000       7.62000000E-03  
4.94820000       4.67700000E-03  
4.94650000       1.88200000E-03  
4.94480000       1.69900000E-03  
4.94310000       7.11000000E-04  
4.94140000       -9.05000000E-04 
4.93970000       -1.59400000E-03 
4.93800000       -4.86800000E-03 
4.93630000       -7.80600000E-03 
4.93460000       -6.33700000E-03 
4.93290000       -1.68900000E-03 
4.93120000       9.20000000E-04  
4.92950000       -5.28000000E-04 
4.92770000       2.24000000E-03  
4.92600000       4.41400000E-03  
4.92440000       5.79800000E-03  
4.92270000       5.70200000E-03  
4.92100000       5.74300000E-03  
4.91930000       5.37300000E-03  
4.91760000       3.64000000E-03  
4.91590000       3.79300000E-03  
4.91420000       4.02200000E-03  
4.91250000       3.77900000E-03  
4.91080000       1.87600000E-03  
4.90910000       8.06000000E-04  
4.90740000       7.35000000E-04  
4.90570000       2.62200000E-03  
4.90410000       2.93900000E-03  
4.90240000       3.44300000E-03  
4.90070000       6.55000000E-03  
4.89900000       6.41600000E-03  
4.89730000       6.25000000E-03  
4.89570000       7.02900000E-03  
4.89400000       6.11400000E-03  
4.89230000       6.35100000E-03  
4.89060000       7.57300000E-03  
4.88900000       8.62500000E-03  
4.88730000       9.31500000E-03  
4.88560000       9.78400000E-03  
4.88390000       1.00950000E-02  
4.88230000       9.78700000E-03  
4.88060000       1.07790000E-02  
4.87890000       1.38880000E-02  
4.87730000       1.42450000E-02  
4.87560000       1.58130000E-02  
4.87390000       1.82630000E-02  
4.87230000       1.91730000E-02  
4.87060000       2.04330000E-02  
4.86900000       2.23970000E-02  
4.86730000       2.59000000E-02  
4.86560000       2.69220000E-02  
4.86400000       2.78990000E-02  
4.86230000       2.95710000E-02  
4.86070000       2.98110000E-02  
4.85900000       3.01310000E-02  
4.85740000       3.12610000E-02  
4.85570000       3.77520000E-02  
4.85410000       4.23230000E-02  
4.85240000       4.50610000E-02  
4.85080000       4.50920000E-02  
4.84910000       5.43180000E-02  
4.84750000       6.32570000E-02  
4.84580000       6.89830000E-02  
4.84420000       7.41680000E-02  
4.84250000       8.19540000E-02  
4.84090000       9.15390000E-02  
4.83930000       9.83620000E-02  
4.83760000       1.08639000E-01  
4.83600000       1.19508000E-01  
4.83430000       1.27474000E-01  
4.83270000       1.38990000E-01  
4.83110000       1.51208000E-01  
4.82940000       1.63353000E-01  
4.82780000       1.75481000E-01  
4.82620000       1.91278990E-01  
4.82450000       2.09792000E-01  
4.82290000       2.26180990E-01  
4.82130000       2.41660000E-01  
4.81970000       2.58486000E-01  
4.81800000       2.79914000E-01  
4.81640000       3.04743000E-01  
4.81480000       3.28265000E-01  
4.81320000       3.48890990E-01  
4.81150000       3.71477010E-01  
4.80990000       3.96102980E-01  
4.80830000       4.21771010E-01  
4.80670000       4.44119990E-01  
4.80510000       4.67966000E-01  
4.80350000       4.92090000E-01  
4.80180000       5.14804990E-01  
4.80020000       5.38709980E-01  
4.79860000       5.63988990E-01  
4.79700000       5.90766980E-01  
4.79540000       6.10514980E-01  
4.79380000       6.30061000E-01  
4.79220000       6.49794010E-01  
4.79060000       6.70762020E-01  
4.78900000       6.91927030E-01  
4.78740000       7.12600020E-01  
4.78570000       7.31522980E-01  
4.78410000       7.49292980E-01  
4.78250000       7.65933000E-01  
4.78090000       7.81187970E-01  
4.77930000       7.92832030E-01  
4.77770000       8.04001010E-01  
4.77610000       8.14927980E-01  
4.77460000       8.26348040E-01  
4.77300000       8.37242970E-01  
4.77140000       8.47166980E-01  
4.76980000       8.55082020E-01  
4.76820000       8.63162990E-01  
4.76660000       8.69666980E-01  
4.76500000       8.73765030E-01  
4.76340000       8.80140000E-01  
4.76180000       8.85995030E-01  
4.76020000       8.91315000E-01  
4.75860000       8.96235960E-01  
4.75710000       8.98948970E-01  
4.75550000       9.00299000E-01  
4.75390000       9.00670010E-01  
4.75230000       9.01950000E-01  
4.75070000       9.03389970E-01  
4.74910000       9.04778980E-01  
4.74760000       9.06828990E-01  
4.74600000       9.08610990E-01  
4.74440000       9.09984970E-01  
4.74280000       9.10159990E-01  
4.74130000       9.08293990E-01  
4.73970000       9.06661000E-01  
4.73810000       9.08126980E-01  
4.73660000       9.05838010E-01  
4.73500000       9.04946980E-01  
4.73340000       9.07081990E-01  
4.73180000       9.05366970E-01  
4.73030000       9.04212040E-01  
4.72870000       9.03236010E-01  
4.72710000       8.99971010E-01  
4.72560000       9.01116030E-01  
4.72400000       9.02236020E-01  
4.72250000       8.98049010E-01  
4.72090000       8.94945980E-01  
4.71930000       8.93574980E-01  
4.71780000       8.94405980E-01  
4.71620000       8.90858000E-01  
4.71470000       8.89092030E-01  
4.71310000       8.88868030E-01  
4.71160000       8.89030000E-01  
4.71000000       8.88980030E-01  
4.70840000       8.89007030E-01  
4.70690000       8.89496990E-01  
4.70530000       8.86755980E-01  
4.70380000       8.85596010E-01  
4.70220000       8.87566990E-01  
4.70070000       8.89820020E-01  
4.69910000       8.88734970E-01  
4.69760000       8.85495990E-01  
4.69610000       8.85924000E-01  
4.69450000       8.85614010E-01  
4.69300000       8.86209030E-01  
4.69140000       8.90175020E-01  
4.68990000       8.91440960E-01  
4.68840000       8.90083010E-01  
4.68680000       8.85672000E-01  
4.68530000       8.88824010E-01  
4.68370000       8.90929030E-01  
4.68220000       8.92188030E-01  
4.68070000       8.94073030E-01  
4.67910000       8.94845960E-01  
4.67760000       8.96271970E-01  
4.67610000       9.00802990E-01  
4.67450000       9.00947040E-01  
4.67300000       9.02016980E-01  
4.67150000       9.05602040E-01  
4.67000000       9.05100020E-01  
4.66840000       9.06038970E-01  
4.66690000       9.08580020E-01  
4.66540000       9.13906020E-01  
4.66390000       9.14692000E-01  
4.66230000       9.13975980E-01  
4.66080000       9.14501040E-01  
4.65930000       9.17289960E-01  
4.65780000       9.19671020E-01  
4.65630000       9.20863040E-01  
4.65470000       9.21569980E-01  
4.65320000       9.24474030E-01  
4.65170000       9.28294980E-01  
4.65020000       9.26250000E-01  
4.64870000       9.27270970E-01  
4.64720000       9.28690030E-01  
4.64570000       9.27590030E-01  
4.64410000       9.30897980E-01  
4.64260000       9.33186040E-01  
4.64110000       9.32845000E-01  
4.63960000       9.32449040E-01  
4.63810000       9.31533970E-01  
4.63660000       9.30352020E-01  
4.63510000       9.30190960E-01  
4.63360000       9.29974980E-01  
4.63210000       9.29621960E-01  
4.63060000       9.28961030E-01  
4.62910000       9.28769990E-01  
4.62760000       9.28010030E-01  
4.62610000       9.26311040E-01  
4.62460000       9.23684010E-01  
4.62310000       9.21821980E-01  
4.62160000       9.20764010E-01  
4.62010000       9.21074980E-01  
4.61860000       9.18930970E-01  
4.61710000       9.16207960E-01  
4.61560000       9.14764020E-01  
4.61410000       9.15053020E-01  
4.61260000       9.14618000E-01  
4.61120000       9.12689970E-01  
4.60970000       9.10707020E-01  
4.60820000       9.10111010E-01  
4.60670000       9.10695040E-01  
4.60520000       9.11799010E-01  
4.60370000       9.11507030E-01  
4.60220000       9.11382980E-01  
4.60080000       9.13326030E-01  
4.59930000       9.12580030E-01  
4.59780000       9.12379000E-01  
4.59630000       9.13654020E-01  
4.59480000       9.14253010E-01  
4.59340000       9.14187010E-01  
4.59190000       9.13705980E-01  
4.59040000       9.13942030E-01  
4.58890000       9.10589980E-01  
4.58750000       9.05212020E-01  
4.58600000       8.98561020E-01  
4.58450000       8.89049990E-01  
4.58300000       8.77026980E-01  
4.58160000       8.62307970E-01  
4.58010000       8.45998990E-01  
4.57860000       8.25100020E-01  
4.57720000       8.00645980E-01  
4.57570000       7.76294020E-01  
4.57420000       7.44642030E-01  
4.57280000       7.09599000E-01  
4.57130000       6.73545000E-01  
4.56980000       6.38829000E-01  
4.56840000       6.01755980E-01  
4.56690000       5.60772020E-01  
4.56550000       5.18485980E-01  
4.56400000       4.77435000E-01  
4.56250000       4.37649990E-01  
4.56110000       3.98802990E-01  
4.55960000       3.62321010E-01  
4.55820000       3.27981000E-01  
4.55670000       2.96807000E-01  
4.55530000       2.66098000E-01  
4.55380000       2.37696000E-01  
4.55240000       2.12332000E-01  
4.55090000       1.91814990E-01  
4.54950000       1.72778000E-01  
4.54800000       1.55080000E-01  
4.54660000       1.38973000E-01  
4.54510000       1.27315000E-01  
4.54370000       1.16478000E-01  
4.54220000       1.02762000E-01  
4.54080000       9.06200000E-02  
4.53930000       8.06760000E-02  
4.53790000       7.33980000E-02  
4.53650000       6.65960000E-02  
4.53500000       5.80340000E-02  
4.53360000       4.88250000E-02  
4.53210000       4.45670000E-02  
4.53070000       3.91310000E-02  
4.52930000       3.42710000E-02  
4.52780000       3.22880000E-02  
4.52640000       3.42970000E-02  
4.52500000       3.38000000E-02  
