# W4 filter 
# Wavelength [microns]  |  Transmission efficiency
2.53000000       7.00300000E-17  
2.54000000       1.52200000E-16  
2.55000000       1.84400000E-13  
2.56000000       9.99700000E-14  
2.57000000       7.62500000E-15  
2.58000000       3.11800000E-33  
2.59000000       1.46200000E-42  
2.60000000       5.62300000E-31  
2.61000000       3.09800000E-31  
2.62000000       3.17600000E-31  
2.63000000       2.18000000E-29  
2.64000000       1.78700000E-31  
2.65000000       2.70000000E-29  
2.66000000       2.24700000E-36  
2.67000000       2.35900000E-15  
2.68000000       3.20700000E-15  
2.69000000       1.19900000E-14  
2.70000000       1.20200000E-14  
2.71000000       8.76500000E-15  
2.72000000       1.95200000E-14  
2.73000000       1.03500000E-13  
2.74000000       7.12600000E-15  
2.75000000       1.39300000E-15  
2.76000000       4.98500000E-25  
2.77000000       5.09100000E-16  
2.78000000       9.94400000E-15  
2.79000000       8.07000000E-16  
2.80000000       1.14300000E-15  
2.81000000       2.04000000E-16  
2.82000000       5.71900000E-15  
2.83000000       5.99200000E-15  
2.84000000       4.62700000E-14  
2.85000000       1.74100000E-14  
2.86000000       5.68200000E-29  
2.87000000       3.79700000E-29  
2.88000000       6.83900000E-32  
2.89000000       2.24000000E-15  
2.90000000       1.12700000E-14  
2.91000000       8.23300000E-14  
2.92000000       1.13500000E-15  
2.93000000       7.36400000E-14  
2.94000000       6.40700000E-14  
2.95000000       9.98000000E-14  
2.96000000       1.15300000E-14  
2.97000000       7.82300000E-15  
2.98000000       7.04200000E-16  
2.99000000       7.27100000E-15  
3.00000000       4.59200000E-14  
3.01000000       1.05200000E-14  
3.02000000       2.54400000E-13  
3.03000000       1.16900000E-13  
3.04000000       1.28700000E-14  
3.05000000       6.28800000E-14  
3.06000000       4.58800000E-34  
3.07000000       7.79900000E-27  
3.08000000       2.49200000E-25  
3.09000000       1.71100000E-25  
3.10000000       7.61700000E-30  
3.11000000       4.47200000E-28  
3.12000000       1.12900000E-29  
3.13000000       5.43000000E-37  
3.14000000       1.11900000E-30  
3.15000000       8.33400000E-16  
3.16000000       1.48100000E-14  
3.17000000       3.62300000E-14  
3.18000000       3.96200000E-14  
3.19000000       3.18400000E-15  
3.20000000       4.85000000E-15  
3.21000000       6.31700000E-16  
3.22000000       1.50800000E-13  
3.23000000       1.13100000E-14  
3.24000000       1.41800000E-13  
3.25000000       3.20700000E-13  
3.26000000       1.92300000E-14  
3.27000000       7.16900000E-14  
3.28000000       1.06500000E-14  
3.29000000       1.64300000E-14  
3.30000000       2.74500000E-13  
3.31000000       8.68300000E-15  
3.32000000       1.32700000E-13  
3.33000000       7.67700000E-30  
3.34000000       1.09200000E-34  
3.35000000       2.18400000E-32  
3.36000000       1.88600000E-40  
3.37000000       2.68500000E-29  
3.38000000       1.03000000E-36  
3.39000000       4.03100000E-38  
3.40000000       3.13500000E-35  
3.41000000       9.47500000E-33  
3.42000000       3.35600000E-34  
3.43000000       1.00000000E-30  
3.44000000       9.76200000E-16  
3.45000000       3.06100000E-15  
3.46000000       8.83500000E-16  
3.47000000       5.74000000E-16  
3.48000000       5.49700000E-27  
3.49000000       2.26100000E-33  
3.50000000       3.02800000E-28  
3.51000000       5.41200000E-27  
3.52000000       1.67200000E-29  
3.53000000       8.00100000E-24  
3.54000000       1.51700000E-30  
3.55000000       5.46300000E-26  
3.56000000       1.27900000E-32  
3.57000000       1.35400000E-15  
3.58000000       3.86600000E-14  
3.59000000       3.60000000E-15  
3.60000000       1.94000000E-13  
3.61000000       3.37000000E-14  
3.62000000       8.35300000E-14  
3.63000000       4.40100000E-14  
3.64000000       2.86200000E-14  
3.65000000       1.12900000E-13  
3.66000000       3.56300000E-14  
3.67000000       6.79300000E-14  
3.68000000       3.57100000E-13  
3.69000000       6.57700000E-14  
3.70000000       3.80300000E-15  
3.71000000       2.19500000E-14  
3.72000000       8.08300000E-15  
3.73000000       3.63900000E-14  
3.74000000       2.00400000E-14  
3.75000000       7.98000000E-15  
3.76000000       7.01400000E-15  
3.77000000       3.61200000E-14  
3.78000000       1.26000000E-14  
3.79000000       4.07700000E-14  
3.80000000       2.72100000E-13  
3.81000000       9.82500000E-14  
3.82000000       8.63500000E-14  
3.83000000       4.49500000E-15  
3.84000000       1.04100000E-13  
3.85000000       2.35000000E-13  
3.86000000       4.29900000E-14  
3.87000000       9.74200000E-14  
3.88000000       2.21200000E-13  
3.89000000       7.68400000E-14  
3.90000000       1.50600000E-13  
3.91000000       6.29900000E-14  
3.92000000       8.50800000E-14  
3.93000000       8.04000000E-14  
3.94000000       2.33300000E-13  
3.95000000       6.67100000E-14  
3.96000000       1.14300000E-13  
3.97000000       8.49600000E-14  
3.98000000       4.52100000E-14  
3.99000000       1.23000000E-13  
4.00000000       2.35500000E-26  
4.01000000       4.85100000E-33  
4.02000000       6.73200000E-31  
4.03000000       1.56700000E-36  
4.04000000       1.86900000E-25  
4.05000000       1.06200000E-36  
4.06000000       3.26700000E-25  
4.07000000       1.18000000E-30  
4.08000000       1.67500000E-33  
4.09000000       6.41800000E-30  
4.10000000       9.45100000E-30  
4.11000000       8.34300000E-32  
4.12000000       3.18800000E-13  
4.13000000       2.32100000E-14  
4.14000000       5.44400000E-13  
4.15000000       1.37400000E-14  
4.16000000       3.26300000E-13  
4.17000000       7.63100000E-13  
4.18000000       1.42800000E-12  
4.19000000       1.39000000E-12  
4.20000000       3.02400000E-14  
4.21000000       3.25800000E-14  
4.22000000       5.38900000E-13  
4.23000000       1.20700000E-30  
4.24000000       1.86700000E-33  
4.25000000       1.62200000E-28  
4.26000000       6.21500000E-28  
4.27000000       2.79400000E-26  
4.28000000       1.46700000E-30  
4.29000000       1.38700000E-27  
4.30000000       2.03500000E-28  
4.31000000       5.90200000E-25  
4.32000000       1.20000000E-27  
4.33000000       2.15200000E-36  
4.34000000       1.41400000E-36  
4.35000000       8.04600000E-14  
4.36000000       1.82200000E-13  
4.37000000       5.06300000E-13  
4.38000000       3.47300000E-14  
4.39000000       3.06500000E-13  
4.40000000       3.93600000E-13  
4.41000000       1.18700000E-13  
4.42000000       1.03400000E-12  
4.43000000       5.29500000E-14  
4.44000000       2.86700000E-13  
4.45000000       3.80300000E-13  
4.46000000       1.65700000E-13  
4.47000000       1.10500000E-13  
4.48000000       3.28300000E-14  
4.49000000       6.24800000E-14  
4.50000000       5.16700000E-14  
4.51000000       2.98500000E-14  
4.52000000       6.42000000E-15  
4.53000000       4.06300000E-29  
4.54000000       1.16300000E-32  
4.55000000       1.72300000E-15  
4.56000000       5.46700000E-14  
4.57000000       1.95100000E-13  
4.58000000       2.22200000E-13  
4.59000000       2.16700000E-13  
4.60000000       4.68200000E-13  
4.61000000       4.24900000E-13  
4.62000000       1.31600000E-12  
4.63000000       4.46600000E-13  
4.64000000       1.21200000E-12  
4.65000000       9.13000000E-14  
4.66000000       9.38000000E-15  
4.67000000       9.55200000E-14  
4.68000000       5.17400000E-13  
4.69000000       4.06600000E-13  
4.70000000       5.19000000E-13  
4.71000000       4.06400000E-13  
4.72000000       1.70900000E-13  
4.73000000       1.87700000E-13  
4.74000000       5.08100000E-14  
4.75000000       6.98800000E-14  
4.76000000       3.16100000E-12  
4.77000000       4.61800000E-14  
4.78000000       6.91600000E-14  
4.79000000       8.40400000E-14  
4.80000000       7.26500000E-14  
4.81000000       5.17500000E-14  
4.82000000       1.71400000E-13  
4.83000000       5.21300000E-13  
4.84000000       2.21100000E-14  
4.85000000       3.92000000E-12  
4.86000000       3.51100000E-12  
4.87000000       3.28400000E-12  
4.88000000       5.00600000E-12  
4.89000000       3.83600000E-13  
4.90000000       6.56700000E-14  
4.91000000       1.05000000E-13  
4.92000000       9.77100000E-14  
4.93000000       4.55600000E-13  
4.94000000       2.78200000E-13  
4.95000000       7.55000000E-12  
4.96000000       7.49900000E-13  
4.97000000       2.01700000E-11  
4.98000000       1.22400000E-11  
4.99000000       6.81800000E-12  
5.00000000       1.34800000E-11  
5.01000000       4.33000000E-09  
5.02000000       3.09000000E-09  
5.03000000       5.48900000E-09  
5.04000000       5.37200000E-09  
5.05000000       8.35200000E-09  
5.06000000       1.03400000E-08  
5.07000000       9.64900000E-09  
5.08000000       1.20500000E-08  
5.09000000       1.27800000E-08  
5.10000000       1.77200000E-08  
5.11000000       1.84000000E-08  
5.12000000       1.85900000E-08  
5.13000000       2.04200000E-08  
5.14000000       1.62200000E-08  
5.15000000       2.05100000E-08  
5.16000000       1.95000000E-08  
5.17000000       1.42900000E-08  
5.18000000       1.40400000E-08  
5.19000000       1.89500000E-08  
5.20000000       1.77700000E-08  
5.21000000       1.77400000E-08  
5.22000000       1.19900000E-08  
5.23000000       1.49000000E-08  
5.24000000       1.08200000E-08  
5.25000000       1.02500000E-08  
5.26000000       1.04100000E-08  
5.27000000       9.06400000E-09  
5.28000000       9.63800000E-09  
5.29000000       5.34800000E-09  
5.30000000       5.43200000E-09  
5.31000000       2.63600000E-09  
5.32000000       3.68700000E-09  
5.33000000       5.26300000E-09  
5.34000000       7.01800000E-09  
5.35000000       8.59100000E-09  
5.36000000       7.16700000E-09  
5.37000000       1.20200000E-08  
5.38000000       1.06400000E-08  
5.39000000       1.28600000E-08  
5.40000000       1.77500000E-08  
5.41000000       1.98700000E-08  
5.42000000       2.15800000E-08  
5.43000000       2.24100000E-08  
5.44000000       2.75800000E-08  
5.45000000       2.73600000E-08  
5.46000000       3.10200000E-08  
5.47000000       3.64200000E-08  
5.48000000       3.92200000E-08  
5.49000000       3.88700000E-08  
5.50000000       4.01400000E-08  
5.51000000       3.95800000E-08  
5.52000000       4.11200000E-08  
5.53000000       4.17700000E-08  
5.54000000       4.19900000E-08  
5.55000000       4.12200000E-08  
5.56000000       3.95000000E-08  
5.57000000       3.91700000E-08  
5.58000000       3.76700000E-08  
5.59000000       3.56000000E-08  
5.60000000       3.18700000E-08  
5.61000000       2.81700000E-08  
5.62000000       2.42700000E-08  
5.63000000       2.09300000E-08  
5.64000000       1.97200000E-08  
5.65000000       2.13400000E-08  
5.66000000       2.22600000E-08  
5.67000000       2.31500000E-08  
5.68000000       2.36700000E-08  
5.69000000       3.26600000E-08  
5.70000000       4.69100000E-08  
5.71000000       6.09100000E-08  
5.72000000       7.60600000E-08  
5.73000000       9.47100000E-08  
5.74000000       1.11300000E-07  
5.75000000       1.40900000E-07  
5.76000000       1.59400000E-07  
5.77000000       1.88000000E-07  
5.78000000       2.11800000E-07  
5.79000000       2.24800000E-07  
5.80000000       2.44900000E-07  
5.81000000       2.74300000E-07  
5.82000000       2.95400000E-07  
5.83000000       3.11900000E-07  
5.84000000       3.14000000E-07  
5.85000000       3.29900000E-07  
5.86000000       3.28900000E-07  
5.87000000       3.26000000E-07  
5.88000000       3.33100000E-07  
5.89000000       3.57200000E-07  
5.90000000       3.42700000E-07  
5.91000000       3.29500000E-07  
5.92000000       3.12900000E-07  
5.93000000       3.04700000E-07  
5.94000000       2.91600000E-07  
5.95000000       2.82300000E-07  
5.96000000       2.66000000E-07  
5.97000000       2.43900000E-07  
5.98000000       2.22700000E-07  
5.99000000       2.03000000E-07  
6.00000000       1.93000000E-07  
6.01000000       1.74800000E-07  
6.02000000       1.56800000E-07  
6.03000000       1.39600000E-07  
6.04000000       1.20500000E-07  
6.05000000       1.03000000E-07  
6.06000000       8.36700000E-08  
6.07000000       7.46800000E-08  
6.08000000       6.43200000E-08  
6.09000000       5.26100000E-08  
6.10000000       4.28100000E-08  
6.11000000       3.33600000E-08  
6.12000000       3.15900000E-08  
6.13000000       3.52700000E-08  
6.14000000       4.12800000E-08  
6.15000000       4.97700000E-08  
6.16000000       5.96900000E-08  
6.17000000       7.21100000E-08  
6.18000000       1.06800000E-07  
6.19000000       1.55700000E-07  
6.20000000       2.28300000E-07  
6.21000000       3.42300000E-07  
6.22000000       7.28200000E-07  
6.23000000       6.29300000E-07  
6.24000000       8.19300000E-07  
6.25000000       1.09900000E-06  
6.26000000       9.49700000E-07  
6.27000000       2.03900000E-06  
6.28000000       1.78300000E-06  
6.29000000       9.83900000E-07  
6.30000000       7.46500000E-07  
6.31000000       2.59700000E-07  
6.32000000       2.56100000E-07  
6.33000000       2.33600000E-07  
6.34000000       2.24200000E-07  
6.35000000       1.98900000E-07  
6.36000000       1.74100000E-07  
6.37000000       1.44900000E-07  
6.38000000       1.18700000E-07  
6.39000000       1.02200000E-07  
6.40000000       8.03400000E-08  
6.41000000       6.63400000E-08  
6.42000000       5.70000000E-08  
6.43000000       5.77900000E-08  
6.44000000       7.14000000E-08  
6.45000000       9.28700000E-08  
6.46000000       1.17800000E-07  
6.47000000       1.35400000E-07  
6.48000000       1.60600000E-07  
6.49000000       1.86800000E-07  
6.50000000       2.23900000E-07  
6.51000000       2.51300000E-07  
6.52000000       2.86100000E-07  
6.53000000       3.19900000E-07  
6.54000000       3.57200000E-07  
6.55000000       3.98500000E-07  
6.56000000       4.11300000E-07  
6.57000000       4.48400000E-07  
6.58000000       4.87600000E-07  
6.59000000       5.63500000E-07  
6.60000000       6.30000000E-07  
6.61000000       6.94200000E-07  
6.62000000       7.28200000E-07  
6.63000000       8.37600000E-07  
6.64000000       9.09000000E-07  
6.65000000       9.93500000E-07  
6.66000000       1.06200000E-06  
6.67000000       1.13200000E-06  
6.68000000       1.20200000E-06  
6.69000000       1.18800000E-06  
6.70000000       1.19600000E-06  
6.71000000       1.20900000E-06  
6.72000000       1.16300000E-06  
6.73000000       1.09100000E-06  
6.74000000       1.00500000E-06  
6.75000000       8.50600000E-07  
6.76000000       7.31600000E-07  
6.77000000       6.58200000E-07  
6.78000000       5.42500000E-07  
6.79000000       5.19700000E-07  
6.80000000       5.64400000E-07  
6.81000000       6.81200000E-07  
6.82000000       8.07400000E-07  
6.83000000       9.47300000E-07  
6.84000000       1.04400000E-06  
6.85000000       1.20000000E-06  
6.86000000       1.35700000E-06  
6.87000000       1.50700000E-06  
6.88000000       1.68100000E-06  
6.89000000       1.90800000E-06  
6.90000000       2.22300000E-06  
6.91000000       2.39900000E-06  
6.92000000       2.61400000E-06  
6.93000000       2.88800000E-06  
6.94000000       2.91800000E-06  
6.95000000       3.04000000E-06  
6.96000000       3.11600000E-06  
6.97000000       3.17700000E-06  
6.98000000       3.31800000E-06  
6.99000000       3.21000000E-06  
7.00000000       3.23100000E-06  
7.01000000       3.34600000E-06  
7.02000000       3.32800000E-06  
7.03000000       3.24700000E-06  
7.04000000       3.13200000E-06  
7.05000000       2.91900000E-06  
7.06000000       2.79300000E-06  
7.07000000       2.79100000E-06  
7.08000000       2.60100000E-06  
7.09000000       2.61100000E-06  
7.10000000       2.51800000E-06  
7.11000000       2.37300000E-06  
7.12000000       2.35800000E-06  
7.13000000       2.17700000E-06  
7.14000000       2.06700000E-06  
7.15000000       1.94500000E-06  
7.16000000       1.85800000E-06  
7.17000000       1.67800000E-06  
7.18000000       1.59900000E-06  
7.19000000       1.44900000E-06  
7.20000000       1.35500000E-06  
7.21000000       1.24200000E-06  
7.22000000       1.10800000E-06  
7.23000000       1.04700000E-06  
7.24000000       9.30900000E-07  
7.25000000       8.79500000E-07  
7.26000000       7.98000000E-07  
7.27000000       7.14300000E-07  
7.28000000       6.59300000E-07  
7.29000000       5.93500000E-07  
7.30000000       5.38900000E-07  
7.31000000       4.86700000E-07  
7.32000000       4.34700000E-07  
7.33000000       3.78800000E-07  
7.34000000       3.21800000E-07  
7.35000000       2.63100000E-07  
7.36000000       2.10500000E-07  
7.37000000       1.60000000E-07  
7.38000000       1.14000000E-07  
7.39000000       1.11700000E-07  
7.40000000       1.34500000E-07  
7.41000000       1.70400000E-07  
7.42000000       2.13800000E-07  
7.43000000       2.71100000E-07  
7.44000000       3.13700000E-07  
7.45000000       3.57100000E-07  
7.46000000       3.77500000E-07  
7.47000000       3.93800000E-07  
7.48000000       3.90400000E-07  
7.49000000       3.99500000E-07  
7.50000000       3.85600000E-07  
7.51000000       3.60200000E-07  
7.52000000       3.50300000E-07  
7.53000000       3.23600000E-07  
7.54000000       2.97800000E-07  
7.55000000       2.69100000E-07  
7.56000000       2.32700000E-07  
7.57000000       2.07700000E-07  
7.58000000       1.73300000E-07  
7.59000000       1.51600000E-07  
7.60000000       1.20400000E-07  
7.61000000       1.08500000E-07  
7.62000000       9.04500000E-08  
7.63000000       8.35200000E-08  
7.64000000       8.26500000E-08  
7.65000000       8.27800000E-08  
7.66000000       8.13900000E-08  
7.67000000       8.31700000E-08  
7.68000000       9.05400000E-08  
7.69000000       9.45000000E-08  
7.70000000       1.00400000E-07  
7.71000000       1.02000000E-07  
7.72000000       1.08500000E-07  
7.73000000       1.18300000E-07  
7.74000000       1.23000000E-07  
7.75000000       1.30700000E-07  
7.76000000       1.42100000E-07  
7.77000000       1.45900000E-07  
7.78000000       1.57900000E-07  
7.79000000       1.64100000E-07  
7.80000000       1.66000000E-07  
7.81000000       1.72700000E-07  
7.82000000       1.84400000E-07  
7.83000000       1.93400000E-07  
7.84000000       1.91100000E-07  
7.85000000       1.94100000E-07  
7.86000000       2.04300000E-07  
7.87000000       2.00300000E-07  
7.88000000       2.10400000E-07  
7.89000000       2.16900000E-07  
7.90000000       2.16800000E-07  
7.91000000       2.26100000E-07  
7.92000000       2.35600000E-07  
7.93000000       2.46200000E-07  
7.94000000       2.65300000E-07  
7.95000000       2.76700000E-07  
7.96000000       2.80600000E-07  
7.97000000       3.06600000E-07  
7.98000000       3.09700000E-07  
7.99000000       3.23600000E-07  
8.00000000       3.37800000E-07  
8.01000000       3.39300000E-07  
8.02000000       3.39900000E-07  
8.03000000       3.47100000E-07  
8.04000000       3.32700000E-07  
8.05000000       3.32100000E-07  
8.06000000       3.14400000E-07  
8.07000000       3.05800000E-07  
8.08000000       2.94300000E-07  
8.09000000       2.77300000E-07  
8.10000000       2.77300000E-07  
8.11000000       2.73300000E-07  
8.12000000       2.59000000E-07  
8.13000000       2.57400000E-07  
8.14000000       2.73200000E-07  
8.15000000       2.64000000E-07  
8.16000000       2.73200000E-07  
8.17000000       2.86100000E-07  
8.18000000       3.02300000E-07  
8.19000000       3.22700000E-07  
8.20000000       3.46200000E-07  
8.21000000       3.78900000E-07  
8.22000000       4.23600000E-07  
8.23000000       4.80500000E-07  
8.24000000       5.78400000E-07  
8.25000000       6.44200000E-07  
8.26000000       7.58100000E-07  
8.27000000       9.41400000E-07  
8.28000000       1.01000000E-06  
8.29000000       1.19900000E-06  
8.30000000       1.46500000E-06  
8.31000000       9.78800000E-08  
8.32000000       8.15600000E-08  
8.33000000       7.69300000E-08  
8.34000000       6.74800000E-08  
8.35000000       6.59000000E-08  
8.36000000       6.70800000E-08  
8.37000000       6.29100000E-08  
8.38000000       6.17900000E-08  
